#Frequency [Hz]	Relative permittivity
1000000	1535.7
1258900	1249.2
1584900	1015.1
1995300	825.74
2511900	673.55
3162300	551.68
3981100	454.23
5011900	376.26
6309600	313.77
7943300	263.57
10000000	223.12
12589000	190.43
15849000	163.92
19953000	142.37
25119000	124.79
31623000	110.42
39811000	98.638
50119000	88.964
63096000	81.003
79433000	74.441
100000000	69.022
125890000	64.542
158490000	60.831
199530000	57.752
251190000	55.192
316230000	53.057
398110000	51.269
501190000	49.762
630960000	48.481
794330000	47.375
1000000000	46.401
1258900000	45.515
1584900000	44.673
1995300000	43.83
2511900000	42.933
3162300000	41.919
3981100000	40.716
5011900000	39.243
6309600000	37.416
7943300000	35.163
10000000000	32.45
