#Frequency [Hz]	Relative permittivity
1000000	1170.5
1258900	976.45
1584900	806.15
1995300	660.78
2511900	539.91
3162300	441.55
3981100	362.71
5011900	300.1
6309600	250.57
7943300	211.39
10000000	180.32
12589000	155.59
15849000	135.81
19953000	119.91
25119000	107.07
31623000	96.656
39811000	88.183
50119000	81.262
63096000	75.594
79433000	70.94
100000000	67.108
125890000	63.948
158490000	61.336
199530000	59.171
251190000	57.371
316230000	55.869
398110000	54.608
501190000	53.54
630960000	52.624
794330000	51.823
1000000000	51.102
1258900000	50.427
1584900000	49.762
1995300000	49.067
2511900000	48.292
3162300000	47.379
3981100000	46.258
5011900000	44.843
6309600000	43.041
7943300000	40.763
10000000000	37.951
