#Frequency [Hz]	Relative permittivity
1000000	1836.4
1258900	1414.5
1584900	1082.7
1995300	828.25
2511900	636.43
3162300	493.22
3981100	386.74
5011900	307.56
6309600	248.48
7943300	204.18
10000000	170.73
12589000	145.29
15849000	125.8
19953000	110.76
25119000	99.06
31623000	89.909
39811000	82.708
50119000	77.01
63096000	72.482
79433000	68.868
100000000	65.972
125890000	63.644
158490000	61.765
199530000	60.242
251190000	59.002
316230000	57.986
398110000	57.144
501190000	56.439
630960000	55.835
794330000	55.301
1000000000	54.811
1258900000	54.335
1584900000	53.842
1995300000	53.296
2511900000	52.654
3162300000	51.86
3981100000	50.845
5011900000	49.524
6309600000	47.801
7943300000	45.575
10000000000	42.764
